'dmm03003.bt5' 'Mar  5 2007 07:09' 'I'        100.    1  'TIME'   15  'RAW'
  Filename         Date            Scan       Mon    Prf  Base   #pts  Type
dmm03 10um:1um 60:40 (b:S) PMMA 1mm 1/2"          
   0    0    0    0   0   0   0   0.0000     0.00000 0.00000   0.00000    2
 Collimation      Mosaic    Wavelength   T-Start   Incr.   H-field #Det    
  1       0.00000    0.00000    0.00000
  2       2.00000    0.20000    4.80000
  3       0.00000    0.00000    0.00000
  4       0.00000    0.00000    0.00000
  5      10.00000    0.00000   10.00000
  6       0.00000    0.00000    0.00000
 Mot:    Start       Step      End
     A2       MIN      MONITOR      COUNTS      EXTRA  
      2.000    1.67     2908864        2952     1450098
 2908864,2952,1430,1435547,1765,5285,6071,0,0,0,0,0,0,0,0,0
      2.200    1.67     2913399        2285     1457009
 2913399,2285,1135,1445772,1310,4187,4605,0,0,0,0,0,0,0,0,0
      2.400    1.67     2912458        1933     1457622
 2912458,1933,1130,1447539,1140,3745,4068,0,0,0,0,0,0,0,0,0
      2.600    1.67     2912128        1998     1459281
 2912128,1998,1018,1449854,1103,3487,3819,0,0,0,0,0,0,0,0,0
      2.800    1.67     2909308        1741     1457432
 2909308,1741,830,1449199,980,3073,3350,0,0,0,0,0,0,0,0,0
      3.000    1.67     2912994        1370     1460583
 2912994,1370,739,1453413,853,2716,2862,0,0,0,0,0,0,0,0,0
      3.200    1.67     2904984        1115     1457805
 2904984,1115,546,1452014,677,2144,2424,0,0,0,0,0,0,0,0,0
      3.400    1.67     2908649         930     1459799
 2908649,930,498,1455003,533,1734,2031,0,0,0,0,0,0,0,0,0
      3.600    1.67     2908576         845     1461081
 2908576,845,438,1456699,483,1690,1771,0,0,0,0,0,0,0,0,0
      3.800    1.67     2909399         800     1459334
 2909399,800,431,1455366,442,1524,1571,0,0,0,0,0,0,0,0,0
      4.000    1.67     2909868         754     1458411
 2909868,754,389,1454721,412,1373,1516,0,0,0,0,0,0,0,0,0
      4.200    1.67     2906063         678     1460053
 2906063,678,417,1456552,404,1298,1382,0,0,0,0,0,0,0,0,0
      4.400    1.67     2909194         635     1458025
 2909194,635,335,1454929,378,1098,1285,0,0,0,0,0,0,0,0,0
      4.600    1.67     2906676         550     1461472
 2906676,550,266,1458743,307,1017,1139,0,0,0,0,0,0,0,0,0
      4.800    1.67     2909755         494     1461005
 2909755,494,271,1458559,260,915,1000,0,0,0,0,0,0,0,0,0
