'dms02005.bt5' 'Mar  4 2007 00:52' 'I'        400.    1  'TIME'   10  'RAW'
  Filename         Date            Scan       Mon    Prf  Base   #pts  Type
dms02 5um SiO2 CM2.9 1mm 1/2" Cd aperture         
   0    0    0    0   0   0   0   0.0000     0.00000 0.00000   0.00000    2
 Collimation      Mosaic    Wavelength   T-Start   Incr.   H-field #Det    
  1       0.00000    0.00000    0.00000
  2      10.00000    1.00000   19.00000
  3       0.00000    0.00000    0.00000
  4       0.00000    0.00000    0.00000
  5      20.00000    0.00000   20.00000
  6       0.00000    0.00000    0.00000
 Mot:    Start       Step      End
     A2       MIN      MONITOR      COUNTS      EXTRA  
     10.000    6.67    11611498          95     6083476
 11611498,95,40,6083042,63,159,172,0,0,0,0,0,0,0,0,0
     11.000    6.67    11599280          48     6081805
 11599280,48,21,6081520,32,91,141,0,0,0,0,0,0,0,0,0
     12.000    6.67    11603744          43     6082590
 11603744,43,21,6082373,22,78,96,0,0,0,0,0,0,0,0,0
     13.000    6.67    11617484          31     6093565
 11617484,31,22,6093330,32,83,98,0,0,0,0,0,0,0,0,0
     14.000    6.67    11616912          28     6088964
 11616912,28,16,6088807,15,60,66,0,0,0,0,0,0,0,0,0
     15.000    6.67    11605488          32     6087606
 11605488,32,22,6087468,19,44,53,0,0,0,0,0,0,0,0,0
     16.000    6.67    11602434          22     6085224
 11602434,22,12,6085106,21,36,49,0,0,0,0,0,0,0,0,0
     17.000    6.67    11604586          18     6087531
 11604586,18,10,6087432,8,38,43,0,0,0,0,0,0,0,0,0
     18.000    6.67    11591717          32     6076852
 11591717,32,8,6076766,11,36,31,0,0,0,0,0,0,0,0,0
     19.000    6.67    11605708           8     6089252
 11605708,8,8,6089177,9,25,33,0,0,0,0,0,0,0,0,0
