'dmm01004.bt5' 'Feb 28 2007 07:33' 'I'        200.    1  'TIME'   10  'RAW'
  Filename         Date            Scan       Mon    Prf  Base   #pts  Type
dmm01 1um PMMA 1mm 5/8" Gd aperture               
   0    0    0    0   0   0   0   0.0000     0.00000 0.00000   0.00000    2
 Collimation      Mosaic    Wavelength   T-Start   Incr.   H-field #Det    
  1       0.00000    0.00000    0.00000
  2       5.00000    0.50000    9.50000
  3       0.00000    0.00000    0.00000
  4       0.00000    0.00000    0.00000
  5       0.00000    0.00000    0.00000
  6       0.00000    0.00000    0.00000
 Mot:    Start       Step      End
     A2       MIN      MONITOR      COUNTS      EXTRA  
      5.000    3.33     5796330        2087     4258820
 5796330,2087,1170,4248738,1196,3737,3979,0,0,0,0,0,0,0,0,0
      5.500    3.33     5797079        1853     4259788
 5797079,1853,1022,4250577,1081,3528,3580,0,0,0,0,0,0,0,0,0
      6.000    3.33     5795480        1723     4254395
 5795480,1723,894,4246110,980,3154,3257,0,0,0,0,0,0,0,0,0
      6.500    3.33     5798246        1493     4259901
 5798246,1493,812,4252437,903,2728,3021,0,0,0,0,0,0,0,0,0
      7.000    3.33     5801471        1275     4262242
 5801471,1275,678,4255915,823,2314,2512,0,0,0,0,0,0,0,0,0
      7.500    3.33     5795685        1001     4260758
 5795685,1001,581,4255663,667,1820,2027,0,0,0,0,0,0,0,0,0
      8.000    3.33     5798218         752     4256282
 5798218,752,351,4252543,506,1318,1564,0,0,0,0,0,0,0,0,0
      8.500    3.33     5804994         475     4262313
 5804994,475,231,4259765,368,871,1078,0,0,0,0,0,0,0,0,0
      9.000    3.33     5803379         295     4266417
 5803379,295,142,4264839,236,519,681,0,0,0,0,0,0,0,0,0
      9.500    3.33     5793067         229     4255403
 5793067,229,124,4254369,151,356,403,0,0,0,0,0,0,0,0,0
