'dmm01005.bt5' 'Feb 28 2007 08:10' 'I'        400.    1  'TIME'   10  'RAW'
  Filename         Date            Scan       Mon    Prf  Base   #pts  Type
dmm01 1um PMMA 1mm 5/8" Gd aperture               
   0    0    0    0   0   0   0   0.0000     0.00000 0.00000   0.00000    2
 Collimation      Mosaic    Wavelength   T-Start   Incr.   H-field #Det    
  1       0.00000    0.00000    0.00000
  2      10.00000    1.00000   19.00000
  3       0.00000    0.00000    0.00000
  4       0.00000    0.00000    0.00000
  5       0.00000    0.00000    0.00000
  6       0.00000    0.00000    0.00000
 Mot:    Start       Step      End
     A2       MIN      MONITOR      COUNTS      EXTRA  
     10.000    6.67    11606905         326     8524294
 11606905,326,202,8522551,205,628,708,0,0,0,0,0,0,0,0,0
     11.000    6.67    11610943         345     8530810
 11610943,345,198,8529153,205,633,621,0,0,0,0,0,0,0,0,0
     12.000    6.67    11596598         347     8513240
 11596598,347,208,8511482,202,643,705,0,0,0,0,0,0,0,0,0
     13.000    6.67    11611459         357     8523714
 11611459,357,197,8521961,233,649,674,0,0,0,0,0,0,0,0,0
     14.000    6.67    11604370         278     8525245
 11604370,278,142,8523832,194,508,569,0,0,0,0,0,0,0,0,0
     15.000    6.67    11603919         198     8524723
 11603919,198,109,8523672,147,372,423,0,0,0,0,0,0,0,0,0
     16.000    6.67    11618918         130     8528636
 11618918,130,54,8528024,92,207,259,0,0,0,0,0,0,0,0,0
     17.000    6.67    11598703          77     8523490
 11598703,77,39,8523047,51,175,178,0,0,0,0,0,0,0,0,0
     18.000    6.67    11606347          94     8520918
 11606347,94,34,8520527,59,147,151,0,0,0,0,0,0,0,0,0
     19.000    6.67    11606495          88     8516018
 11606495,88,49,8515577,59,158,175,0,0,0,0,0,0,0,0,0
