'dmm04004.bt5' 'Mar  4 2007 21:13' 'I'        200.    1  'TIME'   10  'RAW'
  Filename         Date            Scan       Mon    Prf  Base   #pts  Type
dmm04 10um:1um 80:20 (b:S) PMMA 1mm 1/2" cd ap    
   0    0    0    0   0   0   0   0.0000     0.00000 0.00000   0.00000    2
 Collimation      Mosaic    Wavelength   T-Start   Incr.   H-field #Det    
  1       0.00000    0.00000    0.00000
  2       5.00000    0.50000    9.50000
  3       0.00000    0.00000    0.00000
  4       0.00000    0.00000    0.00000
  5      20.00000    0.00000   20.00000
  6       0.00000    0.00000    0.00000
 Mot:    Start       Step      End
     A2       MIN      MONITOR      COUNTS      EXTRA  
      5.000    3.33     5836826         738     2930711
 5836826,738,390,2926944,423,1455,1499,0,0,0,0,0,0,0,0,0
      5.500    3.33     5826047         647     2929660
 5826047,647,352,2926376,416,1183,1333,0,0,0,0,0,0,0,0,0
      6.000    3.33     5821679         506     2926285
 5821679,506,263,2923683,317,943,1079,0,0,0,0,0,0,0,0,0
      6.500    3.33     5825721         418     2928872
 5825721,418,220,2926652,274,781,945,0,0,0,0,0,0,0,0,0
      7.000    3.33     5823947         383     2931488
 5823947,383,175,2929615,231,650,817,0,0,0,0,0,0,0,0,0
      7.500    3.33     5832021         276     2931651
 5832021,276,129,2930208,185,564,565,0,0,0,0,0,0,0,0,0
      8.000    3.33     5825178         227     2929849
 5825178,227,119,2928677,139,434,480,0,0,0,0,0,0,0,0,0
      8.500    3.33     5830985         177     2933369
 5830985,177,68,2932508,116,304,373,0,0,0,0,0,0,0,0,0
      9.000    3.33     5832746         113     2932684
 5832746,113,66,2932089,67,202,260,0,0,0,0,0,0,0,0,0
      9.500    3.33     5834479         106     2931098
 5834479,106,51,2930654,48,142,203,0,0,0,0,0,0,0,0,0
