'dmm10005.bt5' 'Feb 28 2007 17:59' 'I'        800.    1  'TIME'   10  'RAW'
  Filename         Date            Scan       Mon    Prf  Base   #pts  Type
dmm10 10um PMMA 1mm 5/8" Gd aperture              
   0    0    0    0   0   0   0   0.0000     0.00000 0.00000   0.00000    2
 Collimation      Mosaic    Wavelength   T-Start   Incr.   H-field #Det    
  1       0.00000    0.00000    0.00000
  2      10.00000    1.00000   19.00000
  3       0.00000    0.00000    0.00000
  4       0.00000    0.00000    0.00000
  5      30.00000    0.00000   30.00000
  6       0.00000    0.00000    0.00000
 Mot:    Start       Step      End
     A2       MIN      MONITOR      COUNTS      EXTRA  
     10.000   13.33    23170696         346    15934943
 23170696,346,181,15933292,211,621,638,0,0,0,0,0,0,0,0,0
     11.000   13.33    23174756         269    15933419
 23174756,269,149,15932124,173,461,512,0,0,0,0,0,0,0,0,0
     12.000   13.33    23183069         198    15938118
 23183069,198,99,15937190,138,320,371,0,0,0,0,0,0,0,0,0
     13.000   13.33    23183824         133    15938897
 23183824,133,86,15938146,89,306,270,0,0,0,0,0,0,0,0,0
     14.000   13.33    23167116         111    15928753
 23167116,111,62,15928141,78,240,232,0,0,0,0,0,0,0,0,0
     15.000   13.33    23170098          92    15932549
 23170098,92,52,15932086,52,174,185,0,0,0,0,0,0,0,0,0
     16.000   13.33    23163226          89    15930144
 23163226,89,38,15929780,55,144,127,0,0,0,0,0,0,0,0,0
     17.000   13.33    23172017          87    15934875
 23172017,87,38,15934524,37,132,144,0,0,0,0,0,0,0,0,0
     18.000   13.33    23166283          69    15932254
 23166283,69,40,15931939,54,114,107,0,0,0,0,0,0,0,0,0
     19.000   13.33    23172099          52    15935277
 23172099,52,23,15935060,36,91,67,0,0,0,0,0,0,0,0,0
