'dms03005.bt5' 'Mar  5 2007 19:13' 'I'        400.    1  'TIME'   10  'RAW'
  Filename         Date            Scan       Mon    Prf  Base   #pts  Type
dms03 5um:1um 70:30 SiO2 CM2.9 1mm 1/2" Cd apertur
   0    0    0    0   0   0   0   0.0000     0.00000 0.00000   0.00000    2
 Collimation      Mosaic    Wavelength   T-Start   Incr.   H-field #Det    
  1       0.00000    0.00000    0.00000
  2      10.00000    1.00000   19.00000
  3       0.00000    0.00000    0.00000
  4       0.00000    0.00000    0.00000
  5       0.00000    0.00000    0.00000
  6       0.00000    0.00000    0.00000
 Mot:    Start       Step      End
     A2       MIN      MONITOR      COUNTS      EXTRA  
     10.000    6.67    11604114         138     6297364
 11604114,138,74,6296665,77,259,289,0,0,0,0,0,0,0,0,0
     11.000    6.67    11597171         125     6290091
 11597171,125,58,6289474,75,227,257,0,0,0,0,0,0,0,0,0
     12.000    6.67    11606264         114     6300225
 11606264,114,47,6299775,52,181,170,0,0,0,0,0,0,0,0,0
     13.000    6.67    11604849          94     6297637
 11604849,94,60,6297134,60,183,200,0,0,0,0,0,0,0,0,0
     14.000    6.67    11600495          73     6291169
 11600495,73,46,6290774,43,140,166,0,0,0,0,0,0,0,0,0
     15.000    6.67    11599867          79     6290890
 11599867,79,38,6290512,47,151,142,0,0,0,0,0,0,0,0,0
     16.000    6.67    11588512          54     6288426
 11588512,54,37,6288087,35,117,150,0,0,0,0,0,0,0,0,0
     17.000    6.67    11602056          51     6298627
 11602056,51,20,6298371,28,109,99,0,0,0,0,0,0,0,0,0
     18.000    6.67    11594921          45     6290760
 11594921,45,32,6290522,26,74,106,0,0,0,0,0,0,0,0,0
     19.000    6.67    11585663          27     6286300
 11585663,27,12,6286167,17,55,49,0,0,0,0,0,0,0,0,0
