 Motor no.  5    Intensity at Detector:    2Nov  5 2008 10:53
   12.5000           100
   12.5500           111
   12.6000           112
   12.6500            96
   12.7000           100
   12.7500           113
   12.8000           100
   12.8500           110
   12.9000           133
   12.9500           120
   13.0000           109
   13.0500           128
   13.1000           114
   13.1500           174
   13.2000           182
   13.2500           192
   13.3000           206
   13.3500           240
   13.4000           282
   13.4500           273
   13.5000           300
   13.5500           306
   13.6000           323
   13.6500           321
   13.7000           315
   13.7500           295
   13.8000           313
   13.8500           345
   13.9000           290
   13.9500           302
   14.0000           344
   14.0500           324
   14.1000           280
   14.1500           254
   14.2000           209
   14.2500           154
   14.3000           134
   14.3500           108
   14.4000           108
   14.4500           104
   14.5000           103
   14.5500            94
   14.6000            93
