'dms03007.bt5' 'Mar  6 2007 00:01' 'I'       1600.    1  'TIME'   10  'RAW'
  Filename         Date            Scan       Mon    Prf  Base   #pts  Type
dms03 5um:1um 70:30 SiO2 CM2.9 1mm 1/2" Cd apertur
   0    0    0    0   0   0   0   0.0000     0.00000 0.00000   0.00000    2
 Collimation      Mosaic    Wavelength   T-Start   Incr.   H-field #Det    
  1       0.00000    0.00000    0.00000
  2      50.00000    5.00000   95.00000
  3       0.00000    0.00000    0.00000
  4       0.00000    0.00000    0.00000
  5       0.00000    0.00000    0.00000
  6       0.00000    0.00000    0.00000
 Mot:    Start       Step      End
     A2       MIN      MONITOR      COUNTS      EXTRA  
     50.000   26.67    46375222          18    25166176
 46375222,18,9,25166123,10,11,23,0,0,0,0,0,0,0,0,0
     55.000   26.67    46330281          12    25156582
 46330281,12,11,25156521,15,13,22,0,0,0,0,0,0,0,0,0
     60.000   26.67    46350566          11    25151804
 46350566,11,13,25151741,11,24,15,0,0,0,0,0,0,0,0,0
     65.000   26.67    46337595          12    25152450
 46337595,12,14,25152392,11,16,17,0,0,0,0,0,0,0,0,0
     70.000   26.67    46328568          17    25151317
 46328568,17,11,25151272,6,15,13,0,0,0,0,0,0,0,0,0
     75.000   26.67    46321576          14    25157351
 46321576,14,11,25157286,11,16,27,0,0,0,0,0,0,0,0,0
     80.000   26.67    46291863           9    25138931
 46291863,9,7,25138894,9,13,8,0,0,0,0,0,0,0,0,0
     85.000   26.67    46292683           8    25135494
 46292683,8,7,25135459,10,11,7,0,0,0,0,0,0,0,0,0
     90.000   26.67    46283860          10    25128742
 46283860,10,9,25128698,7,13,15,0,0,0,0,0,0,0,0,0
     95.000   26.67    46258888           8    25114265
 46258888,8,14,25114209,8,29,5,0,0,0,0,0,0,0,0,0
